File: forSETO2021.dat
# wavelength[nm] Solar Irradiance[W/m^2/nm] BB intensity@1300K[W/m^2/nm] Au  SiC  B4C  TiN  ZrN
280 4.7309e-23 4.51508e-10 1.77882 1.46888 1.51265 1.63821 1.61683
286.906 2.37886e-12 1.03615e-09 1.83154 1.44737 1.48282 1.62996 1.62818
293.812 3.45674e-06 2.28032e-09 1.85045 1.42949 1.45696 1.61706 1.61932
300.717 0.00154265 4.82682e-09 1.84526 1.37881 1.39161 1.57139 1.61324
307.623 0.0361768 9.85338e-09 1.80202 1.36086 1.35383 1.56043 1.58828
314.529 0.130925 1.9446e-08 1.77937 1.37714 1.35546 1.59222 1.57675
321.435 0.239976 3.71847e-08 1.76609 1.43923 1.40162 1.67706 1.52761
328.34 0.365098 6.90358e-08 1.66517 1.5591 1.499 1.80776 1.32778
335.246 0.45859 1.24673e-07 1.47546 1.63921 1.5822 1.87572 1.10624
342.152 0.494905 2.19385e-07 1.28772 1.69539 1.66654 1.89685 0.931583
349.058 0.467068 3.76758e-07 1.1454 1.73479 1.74234 1.8715 0.805043
355.963 0.556542 6.32371e-07 1.03327 1.76821 1.80561 1.79978 0.700898
362.869 0.597508 1.03877e-06 0.980981 1.78732 1.83849 1.71405 0.658379
369.775 0.750395 1.67203e-06 0.936469 1.811 1.87291 1.61223 0.621704
376.681 0.681361 2.64025e-06 0.909189 1.82805 1.91099 1.51483 0.600796
383.586 0.452435 4.09436e-06 0.891087 1.83389 1.95334 1.4254 0.588377
390.492 0.803604 6.2416e-06 0.8768 1.82557 1.99025 1.34601 0.578597
397.398 0.587916 9.36213e-06 0.868213 1.80239 2.00862 1.28388 0.577304
404.304 1.1713 1.38291e-05 0.854779 1.7731 2.01028 1.22916 0.580727
411.209 1.18929 2.01326e-05 0.8365 1.74792 1.99615 1.18257 0.59876
418.115 1.18324 2.89078e-05 0.818688 1.72944 1.9684 1.17107 0.617195
425.021 1.24806 4.09678e-05 0.801999 1.71658 1.92712 1.17687 0.636073
431.927 1.28204 5.73407e-05 0.786649 1.70564 1.87358 1.1867 0.657687
438.832 1.18526 7.93126e-05 0.772226 1.69202 1.81238 1.20036 0.685143
445.738 1.35037 0.000108474 0.753447 1.67167 1.74924 1.21756 0.715516
452.644 1.4719 0.000146774 0.72897 1.64176 1.6867 1.23798 0.749515
459.55 1.5336 0.000196573 0.70444 1.60387 1.62899 1.26164 0.795724
466.455 1.53542 0.000260712 0.662197 1.56179 1.57859 1.28863 0.849283
473.361 1.55611 0.000342572 0.618863 1.51869 1.53635 1.31913 0.908937
480.267 1.61799 0.000446144 0.596934 1.47968 1.50569 1.35161 0.965506
487.173 1.44433 0.000576108 0.594611 1.44604 1.48396 1.3865 1.02468
494.078 1.56003 0.000737903 0.583589 1.41695 1.46908 1.42514 1.09065
500.984 1.49855 0.000937804 0.591953 1.39264 1.4604 1.47267 1.16485
507.89 1.52085 0.00118301 0.605449 1.37312 1.45689 1.52227 1.25194
514.796 1.52263 0.0014817 0.609593 1.35846 1.45822 1.57119 1.34721
521.701 1.55873 0.00184314 0.673006 1.34904 1.46371 1.6188 1.4497
528.607 1.57905 0.00227773 0.78576 1.34514 1.4733 1.66425 1.54332
535.513 1.58756 0.00279712 0.944359 1.34734 1.48601 1.70689 1.6377
542.419 1.54042 0.00341423 1.16173 1.35645 1.50239 1.74598 1.73002
549.324 1.54807 0.00414332 1.45319 1.37313 1.52157 1.78061 1.82271
556.23 1.5279 0.0050001 1.88517 1.39771 1.54359 1.80987 1.91097
563.136 1.53669 0.00600172 2.53005 1.4307 1.56742 1.83285 1.98361
570.042 1.47958 0.00716687 3.29174 1.47217 1.59351 1.84835 2.03299
576.947 1.50036 0.00851576 3.99012 1.52162 1.62039 1.85617 2.05619
583.853 1.54526 0.0100702 4.04061 1.57795 1.6473 1.85584 2.05467
590.759 1.44323 0.0118536 3.20746 1.63795 1.67351 1.84704 2.0246
597.665 1.46677 0.013891 2.19977 1.69726 1.69701 1.82969 1.97107
604.57 1.49062 0.016209 1.44146 1.75038 1.71654 1.80397 1.90022
611.476 1.47158 0.0188358 0.949741 1.78937 1.73038 1.77075 1.81435
618.382 1.46904 0.0218013 0.63785 1.80622 1.73676 1.73042 1.71295
625.288 1.4022 0.0251367 0.457499 1.79419 1.73401 1.68088 1.60364
632.193 1.38063 0.0288751 0.339562 1.74887 1.72048 1.62832 1.49255
639.099 1.46156 0.0330507 0.256709 1.6714 1.69479 1.57454 1.38305
646.005 1.41497 0.0376992 0.197007 1.56962 1.6578 1.52006 1.27901
652.911 1.42717 0.0428578 0.154774 1.45233 1.61086 1.46591 1.1833
659.817 1.3976 0.0485648 0.12512 1.32608 1.55485 1.41205 1.09339
666.722 1.41301 0.0548596 0.102049 1.19979 1.49071 1.3588 1.00925
673.628 1.40814 0.0617828 0.0838546 1.0795 1.42113 1.30645 0.934176
680.534 1.39402 0.0693761 0.069332 0.968619 1.34791 1.25524 0.865333
687.44 1.03521 0.0776817 0.0576163 0.867523 1.27243 1.20537 0.802167
694.345 1.25503 0.086743 0.0496186 0.776534 1.19787 1.15704 0.742919
701.251 1.26628 0.0966036 0.0433057 0.697037 1.12406 1.11038 0.686855
708.157 1.30554 0.107308 0.0379868 0.628166 1.0533 1.06537 0.635837
715.063 1.25951 0.118901 0.0334735 0.566965 0.98628 1.02206 0.589555
721.968 1.2358 0.131427 0.0296191 0.512988 0.921663 0.980482 0.552887
728.874 1.04577 0.144931 0.0263078 0.465443 0.862012 0.940626 0.519886
735.78 1.20852 0.159459 0.0240749 0.422916 0.805082 0.902329 0.489336
742.686 1.23258 0.175056 0.0221359 0.386515 0.754243 0.865671 0.460579
749.591 1.23475 0.191766 0.020413 0.354703 0.706533 0.830676 0.433121
756.497 1.22265 0.209633 0.0188759 0.32624 0.661373 0.797298 0.407857
763.403 0.443676 0.228702 0.0174995 0.300231 0.619823 0.765485 0.384598
770.309 1.16321 0.249015 0.0162628 0.277162 0.581907 0.735181 0.363109
777.214 1.1724 0.270614 0.0151512 0.256451 0.546427 0.706327 0.343244
784.12 1.1542 0.293542 0.0141511 0.237671 0.51483 0.678864 0.324878
791.026 1.10553 0.317838 0.0132424 0.220828 0.4848 0.652734 0.308223
797.932 1.11068 0.343542 0.0124145 0.205998 0.458814 0.62787 0.293457
804.837 1.05835 0.370692 0.0116583 0.192467 0.432582 0.604213 0.279683
811.743 1.03361 0.399324 0.0109661 0.180968 0.410122 0.581703 0.266818
818.649 0.876187 0.429474 0.0103312 0.170993 0.390083 0.560283 0.254854
825.555 0.949638 0.461176 0.00974952 0.160814 0.372832 0.539952 0.243696
832.46 0.922914 0.494462 0.00928061 0.152089 0.352413 0.524358 0.23323
839.366 1.00657 0.529361 0.00885629 0.143089 0.334028 0.510042 0.223069
846.272 1.01136 0.565903 0.00846104 0.134272 0.315108 0.496278 0.212858
853.178 0.944654 0.604116 0.00809229 0.127546 0.302442 0.483041 0.203316
860.083 0.988046 0.644022 0.00774719 0.121971 0.288219 0.470288 0.194377
866.989 0.914739 0.685646 0.00742181 0.116243 0.276114 0.457929 0.187664
873.895 0.942184 0.729009 0.00711713 0.109883 0.263996 0.446034 0.181772
880.801 0.914781 0.77413 0.00683146 0.103533 0.255716 0.434582 0.176149
887.706 0.918857 0.821025 0.00656461 0.0995325 0.243307 0.423552 0.170668
894.612 0.828203 0.869709 0.00631655 0.0956458 0.233678 0.412926 0.164013
901.518 0.63485 0.920195 0.00608282 0.0919828 0.223755 0.402684 0.157772
908.424 0.674261 0.972494 0.00586271 0.0881245 0.213577 0.392825 0.151886
915.329 0.64479 1.02661 0.00565606 0.0827853 0.206507 0.383365 0.146401
922.235 0.710792 1.08256 0.00546064 0.0785115 0.195167 0.374237 0.141209
929.141 0.534473 1.14034 0.00527568 0.0752344 0.188563 0.365424 0.136288
936.047 0.161512 1.19995 0.00510045 0.0721537 0.181637 0.356915 0.131715
942.952 0.284377 1.2614 0.00493429 0.0688742 0.174458 0.348695 0.127771
949.858 0.196417 1.32468 0.0047766 0.0647394 0.168193 0.340752 0.124033
956.764 0.284251 1.38978 0.00462557 0.0617764 0.16116 0.333064 0.120453
963.67 0.473935 1.45671 0.00448074 0.0596152 0.156103 0.32563 0.116976
970.575 0.68028 1.52545 0.004343 0.0575521 0.150683 0.31844 0.113655
977.481 0.627307 1.59599 0.0042119 0.0555809 0.145504 0.311484 0.110485
984.387 0.718299 1.66832 0.00408702 0.0536957 0.140557 0.304751 0.10745
991.293 0.752831 1.74242 0.00399917 0.0519463 0.135922 0.298271 0.104571
998.198 0.73881 1.81829 0.00398047 0.0503851 0.13167 0.292087 0.101791
1005.1 0.684949 1.89589 0.00396452 0.0488896 0.127597 0.286098 0.0991249
1012.01 0.718758 1.97522 0.00395115 0.0474559 0.123697 0.280294 0.0965757
1018.92 0.690923 2.05625 0.00388953 0.0459927 0.119848 0.274647 0.0940605
1025.82 0.696569 2.13896 0.00371616 0.0443874 0.115851 0.26912 0.0915135
1032.73 0.679332 2.22332 0.0035487 0.0428416 0.112006 0.263756 0.0890738
1039.63 0.67341 2.30931 0.00338589 0.041352 0.108306 0.258549 0.0867957
1046.54 0.65242 2.3969 0.00322844 0.0399155 0.104741 0.253492 0.0846606
1053.44 0.647976 2.48606 0.00311762 0.0386791 0.101471 0.248592 0.0826436
1060.35 0.630722 2.57676 0.00304087 0.0375825 0.0984612 0.243835 0.0807297
1067.26 0.620095 2.66896 0.0029672 0.0365238 0.0955603 0.239214 0.0789006
1074.16 0.616878 2.76265 0.00289647 0.0355011 0.0927624 0.234724 0.0772483
1081.07 0.581409 2.85777 0.00282852 0.0345128 0.0901233 0.23036 0.0756471
1087.97 0.592471 2.95431 0.00276321 0.033557 0.087672 0.226118 0.0740751
1094.88 0.522965 3.05221 0.00270057 0.0326327 0.085306 0.222004 0.0725104
1101.78 0.474883 3.15145 0.00264071 0.0317386 0.0830241 0.218031 0.0709553
1108.69 0.413668 3.25198 0.00258306 0.0308726 0.0808171 0.214165 0.069483
1115.6 0.220942 3.35377 0.00252753 0.0300334 0.0787655 0.210402 0.0680821
1122.5 0.105025 3.45677 0.00247402 0.0292197 0.0768048 0.206739 0.0666728
1129.41 0.0914986 3.56095 0.00242948 0.0284304 0.0749056 0.203171 0.0652826
1136.31 0.17865 3.66627 0.00239912 0.0276643 0.0730647 0.199693 0.0638688
1143.22 0.268274 3.77268 0.00236929 0.0269205 0.0711969 0.196294 0.0625016
1150.13 0.131869 3.88015 0.00234012 0.026198 0.0693749 0.192983 0.0614254
1157.03 0.314491 3.98862 0.00231157 0.0254961 0.0676073 0.189755 0.0604276
1163.94 0.406107 4.09806 0.00228364 0.0248138 0.0658824 0.186609 0.0594999
1170.84 0.449953 4.20842 0.00225631 0.0241741 0.0640639 0.183542 0.058543
1177.75 0.388298 4.31967 0.00220254 0.023514 0.0622283 0.180522 0.0574944
1184.65 0.411716 4.43174 0.00212474 0.0228298 0.0604155 0.177548 0.0564728
1191.56 0.461576 4.54461 0.00204837 0.0221633 0.0587842 0.174647 0.0554775
1198.47 0.401794 4.65823 0.00197341 0.0215138 0.0571976 0.171816 0.0546389
1200 0.44825 4.68358 0.00195694 0.0213717 0.0568509 0.171196 0.0544694